File: Data/P190_04/EIS_08_P190_04_2/2_EIS_08_P190_04_2 20231019 123923.csv
Step number,Repeats,Step name,Elapsed Time  (s),DC Working Electrode (V),DC Current (A),Frequency (Hz),|Z| (Ohms),Phase (deg),Z' (Ohms),-Z" (Ohms),THD (%),Amplitude (A),Amplitude (V),No of Cycles,Duration of Each Frequency (s),IR Compensated DC Working Electrode (V)
2,1,Potentiostatic EIS,60.2994,3.48697,-0.0112864,1000000,3.28386,88.3284,0.0957907,-3.28246,1.2969,0.00303072,0.00995243,1430,0.00143,3.48697
2,1,Potentiostatic EIS,60.9863,3.48692,-0.0124076,707946,2.35416,87.773,0.0914809,-2.35238,1.21048,0.00421882,0.00993178,1340,0.0018928,3.48692
2,1,Potentiostatic EIS,61.7459,3.48685,-0.0143294,501187,1.68009,87.1628,0.0831611,-1.67803,1.19428,0.00593371,0.00996917,1385,0.00276344,3.48685
2,1,Potentiostatic EIS,62.582,3.48681,-0.0152797,354813,1.19752,86.341,0.0764234,-1.19508,1.05644,0.00832533,0.0099697,1365,0.00384709,3.48681
2,1,Potentiostatic EIS,63.7015,3.48672,-0.0167732,251189,0.860104,85.3016,0.0704517,-0.857214,1.44912,0.0116082,0.00998432,1340,0.00533464,3.48672
2,1,Potentiostatic EIS,64.8705,3.48664,-0.018832,177828,0.618473,84.5596,0.0586376,-0.615687,1.38904,0.0161273,0.00997432,1355,0.00761973,3.48664
2,1,Potentiostatic EIS,66.5896,3.48651,-0.0216932,125892,0.444655,83.4462,0.0507514,-0.441749,1.66636,0.0224772,0.00999463,1370,0.0108823,3.48651
2,1,Potentiostatic EIS,68.3417,3.48639,-0.0244027,89125.1,0.32042,82.0181,0.0444933,-0.317315,1.61872,0.0312815,0.0100231,1365,0.0153156,3.48639
2,1,Potentiostatic EIS,69.9926,3.48631,-0.0268145,63095.7,0.230714,80.3647,0.0386163,-0.22746,1.76425,0.0432834,0.00998613,1290,0.0204451,3.48631
2,1,Potentiostatic EIS,70.8399,3.4862,-0.0279197,44668.3,0.167584,77.6631,0.0358061,-0.163715,2.06174,0.0589426,0.00987776,910,0.0203724,3.4862
2,1,Potentiostatic EIS,71.6505,3.48671,-0.0129236,31622.8,0.122521,74.8369,0.0320476,-0.118256,4.81413,0.08187,0.0100309,645,0.0203967,3.48671
2,1,Potentiostatic EIS,72.2992,3.48715,-0.00247285,22387.2,0.089445,70.8106,0.0293998,-0.0844752,5.98943,0.111508,0.00997379,455,0.0203241,3.48715
2,1,Potentiostatic EIS,72.9189,3.48713,-0.00147793,15848.9,0.0669597,65.5735,0.0276895,-0.0609663,6.68186,0.146144,0.00978613,320,0.0201906,3.48713
2,1,Potentiostatic EIS,73.5324,3.48718,-0.00133653,11220.2,0.0513784,58.564,0.0267962,-0.0438372,6.84298,0.192586,0.00989464,225,0.0200532,3.48718
2,1,Potentiostatic EIS,74.2151,3.48737,-0.00110578,7943.27,0.0407691,51.6219,0.0253114,-0.0319601,4.10888,0.259543,0.0105813,244,0.0307178,3.48737
2,1,Potentiostatic EIS,74.8512,3.48741,-0.000156903,5623.41,0.0326482,41.7443,0.0243596,-0.0217374,4.82391,0.318673,0.0104041,172,0.0305864,3.48741
2,1,Potentiostatic EIS,75.4844,3.48744,0.000435183,3981.07,0.0288207,31.6641,0.0245304,-0.0151291,4.62542,0.352734,0.010166,122,0.0306451,3.48744
2,1,Potentiostatic EIS,75.9911,3.48746,0.00118119,2818.38,0.0266505,22.9561,0.0245399,-0.0103944,4.09097,0.395581,0.0105425,86,0.030514,3.48746
2,1,Potentiostatic EIS,76.4937,3.48747,0.00131511,1995.26,0.0255205,15.6462,0.0245748,-0.00688278,3.31244,0.401559,0.010248,61,0.0305725,3.48747
2,1,Potentiostatic EIS,76.9527,3.48748,0.00138944,1412.53,0.0251317,9.7358,0.0247697,-0.0042499,2.96459,0.366097,0.00920063,43,0.0304417,3.48748
2,1,Potentiostatic EIS,77.3228,3.48748,0.00158923,999.999,0.025158,5.23766,0.0250529,-0.0022966,2.55414,0.40796,0.0102634,30,0.03,3.48748
2,1,Potentiostatic EIS,77.6927,3.48752,0.00265913,707.945,0.0254707,1.81848,0.0254579,-0.000808268,2.11593,0.396471,0.0100984,21,0.0296633,3.48752
2,1,Potentiostatic EIS,78.0639,3.48751,0.00239843,501.185,0.0259697,-0.679683,0.0259679,0.000308064,2.0017,0.386805,0.0100452,15,0.029929,3.48751
2,1,Potentiostatic EIS,78.3453,3.48752,0.00213327,354.813,0.0266058,-2.50944,0.0265803,0.00116491,1.86035,0.336611,0.0089558,10,0.0281839,3.48752
2,1,Potentiostatic EIS,78.584,3.48751,0.00223105,251.188,0.0273178,-3.67144,0.0272617,0.00174929,1.6039,0.347174,0.00948405,8,0.0318487,3.48751
2,1,Potentiostatic EIS,78.8533,3.48752,0.00260695,177.828,0.0280877,-4.41649,0.0280043,0.00216292,1.33673,0.346975,0.00974575,8,0.0449874,3.48752
2,1,Potentiostatic EIS,79.1706,3.48751,0.00224658,125.892,0.0288234,-4.79074,0.0287227,0.00240724,1.0606,0.341764,0.00985081,8,0.0635464,3.48751
2,1,Potentiostatic EIS,79.5592,3.48752,0.0023911,89.1248,0.0295571,-4.88729,0.0294496,0.00251814,0.786185,0.334596,0.00988969,8,0.0897617,3.48752
2,1,Potentiostatic EIS,80.0535,3.48753,0.00270446,63.0956,0.0302541,-4.78492,0.0301487,0.00252366,0.576678,0.32734,0.00990337,8,0.126792,3.48753
2,1,Potentiostatic EIS,80.6983,3.48752,0.0021974,44.6682,0.0309104,-4.56942,0.0308121,0.00246253,0.412991,0.315321,0.00974669,8,0.179098,3.48752
2,1,Potentiostatic EIS,81.3831,3.48751,0.00131978,31.6227,0.0314854,-4.24687,0.0313989,0.00233162,0.313751,0.31416,0.00989152,2,0.0632458,3.48751
2,1,Potentiostatic EIS,81.8711,3.48752,0.00212795,22.3871,0.0320347,-3.85913,0.031962,0.00215605,0.274477,0.303556,0.00972425,2,0.0893371,3.48752
2,1,Potentiostatic EIS,82.5408,3.48752,0.00183694,15.8489,0.0324987,-3.45659,0.0324395,0.00195942,0.221854,0.302292,0.00982412,2,0.126192,3.48752
2,1,Potentiostatic EIS,83.4649,3.48753,0.00165918,11.2201,0.0328826,-3.03662,0.0328364,0.00174193,0.194357,0.30051,0.0098816,2,0.178251,3.48753
2,1,Potentiostatic EIS,84.7485,3.48753,0.00127885,7.94325,0.0332204,-2.6738,0.0331842,0.00154972,0.210446,0.298559,0.00991826,2,0.251786,3.48753
2,1,Potentiostatic EIS,86.5384,3.48752,0.00114015,5.62339,0.0334849,-2.38643,0.0334558,0.00139428,0.204071,0.296579,0.00993091,2,0.355657,3.48752
2,1,Potentiostatic EIS,89.042,3.48753,0.00104492,3.98106,0.0337123,-2.16305,0.0336882,0.00127242,0.188354,0.294892,0.00994146,2,0.502378,3.48753
2,1,Potentiostatic EIS,92.551,3.48753,0.000835716,2.81837,0.0339145,-2.01969,0.0338935,0.00119525,0.203565,0.293181,0.0099431,2,0.70963,3.48753
2,1,Potentiostatic EIS,97.4915,3.48753,0.000794883,1.99526,0.0340827,-1.94175,0.0340632,0.00115484,0.199139,0.291795,0.00994519,2,1.00238,3.48753
2,1,Potentiostatic EIS,104.45,3.48752,0.000689327,1.41253,0.0342876,-1.91477,0.0342685,0.00114564,0.189488,0.2903,0.00995369,2,1.4159,3.48752
2,1,Potentiostatic EIS,114.263,3.48752,0.000314854,0.999995,0.034458,-1.98508,0.0344373,0.0011936,0.20019,0.288679,0.00994729,2,2.00001,3.48752
2,1,Potentiostatic EIS,128.108,3.48751,0.0002056,0.707944,0.0346503,-2.09825,0.0346271,0.00126866,0.204908,0.287274,0.00995412,2,2.82508,3.48751
2,1,Potentiostatic EIS,147.647,3.48753,0.000309899,0.501186,0.0348528,-2.28588,0.0348251,0.00139012,0.138996,0.285415,0.00994751,2,3.99054,3.48753
2,1,Potentiostatic EIS,175.23,3.48751,0.000296194,0.354812,0.0350665,-2.57928,0.035031,0.00157805,0.179203,0.283719,0.00994902,2,5.63679,3.48751
2,1,Potentiostatic EIS,214.16,3.48752,0.000163499,0.251188,0.0353193,-2.94193,0.0352728,0.00181273,0.188654,0.28168,0.00994873,2,7.96218,3.48752
2,1,Potentiostatic EIS,269.134,3.48752,0.000311976,0.177827,0.0355966,-3.40739,0.0355337,0.00211569,0.212108,0.279521,0.00995,2,11.2469,3.48752
2,1,Potentiostatic EIS,346.783,3.48751,0.000267928,0.125892,0.035917,-3.95541,0.0358314,0.00247756,0.175705,0.277286,0.0099593,2,15.8867,3.48751
2,1,Potentiostatic EIS,456.436,3.48751,0.0001347,0.0891246,0.0363142,-4.67424,0.0361934,0.00295925,0.171693,0.274064,0.00995236,2,22.4405,3.48751
2,1,Potentiostatic EIS,611.292,3.4875,0.000420806,0.0630955,0.0367815,-5.56123,0.0366084,0.00356448,0.166697,0.270626,0.00995401,2,31.698,3.4875
2,1,Potentiostatic EIS,821.315,3.48751,0.000116729,0.05,0.0371343,-6.31987,0.0369086,0.0040877,0.176003,0.268182,0.00995878,2,40,3.48751