File: Data/P190_04/EIS_08_P190_04_2/3_EIS_08_P190_04_2 20231019 125205.csv
Step number,Repeats,Step name,Elapsed Time  (s),DC Working Electrode (V),DC Current (A),Frequency (Hz),|Z| (Ohms),Phase (deg),Z' (Ohms),-Z" (Ohms),THD (%),Amplitude (A),Amplitude (V),No of Cycles,Duration of Each Frequency (s),IR Compensated DC Working Electrode (V)
3,1,Potentiostatic EIS,821.682,3.48699,-0.00153869,1000000,3.28542,87.9255,0.118931,-3.28326,1.07773,0.00304646,0.0100096,1430,0.00143,3.48699
3,1,Potentiostatic EIS,824.012,3.48697,0.000906985,954993,3.13701,87.8688,0.11666,-3.13484,1.01874,0.00318891,0.0100034,1425,0.00149216,3.48697
3,1,Potentiostatic EIS,826.225,3.48694,-0.000217521,912011,2.99985,87.8335,0.113405,-2.99771,0.950374,0.00331764,0.0099525,1425,0.00156248,3.48694
3,1,Potentiostatic EIS,828.685,3.48694,-0.000960326,870964,2.87406,87.7219,0.114245,-2.87179,1.013,0.00346489,0.00995841,1390,0.00159593,3.48694
3,1,Potentiostatic EIS,831.102,3.48693,-0.00147329,831764.375,2.74504,87.6696,0.111621,-2.74277,1.18094,0.00360593,0.00989858,1400,0.00168317,3.48693
3,1,Potentiostatic EIS,833.395,3.48692,-0.00216068,794329,2.63265,87.6165,0.109486,-2.63038,1.21625,0.0037609,0.00990114,1445,0.00181915,3.48692
3,1,Potentiostatic EIS,835.706,3.48693,-0.00243668,758578,2.51078,87.6267,0.103971,-2.50863,1.2166,0.00395419,0.00992827,1370,0.00180601,3.48693
3,1,Potentiostatic EIS,838.029,3.48691,-0.00304674,724437,2.40166,87.6735,0.0974939,-2.39968,1.07207,0.00412403,0.00990458,1340,0.00184971,3.48691
3,1,Potentiostatic EIS,840.359,3.48691,-0.0036635,691832,2.30139,87.6489,0.0944087,-2.29945,1.16521,0.0043084,0.00991516,1350,0.00195134,3.48691
3,1,Potentiostatic EIS,842.711,3.4869,-0.00386024,660695,2.19948,87.3444,0.101909,-2.19712,1.17591,0.00450016,0.00989803,1400,0.00211898,3.4869
3,1,Potentiostatic EIS,845.083,3.48689,-0.00402009,630959,2.0981,87.1233,0.105299,-2.09546,1.0837,0.00468919,0.0098382,1355,0.00214753,3.48689
3,1,Potentiostatic EIS,847.472,3.48687,-0.00472193,602560.875,2.0095,87.3154,0.0941216,-2.00729,1.22457,0.00487971,0.0098061,1350,0.00224044,3.48687
3,1,Potentiostatic EIS,849.882,3.48689,-0.00461337,575441.125,1.92171,87.1155,0.0967045,-1.91927,1.23742,0.00506587,0.00973468,1385,0.00240685,3.48689
3,1,Potentiostatic EIS,852.331,3.48686,-0.00528036,549542,1.8322,87.1435,0.0913073,-1.82992,1.12227,0.00528748,0.00968721,1345,0.00244749,3.48686
3,1,Potentiostatic EIS,854.877,3.48685,-0.00539003,524808.75,1.75263,87.1275,0.0878309,-1.75043,1.23193,0.00569799,0.00998643,1345,0.00256284,3.48685
3,1,Potentiostatic EIS,857.589,3.48683,-0.00590003,501188,1.6782,87.1384,0.0837816,-1.67611,1.13837,0.00594433,0.00997582,1385,0.00276343,3.48683
3,1,Potentiostatic EIS,860.307,3.48684,-0.00583882,478631,1.60408,87.0298,0.0831169,-1.60193,1.21402,0.00621211,0.00996481,1365,0.00285188,3.48684
3,1,Potentiostatic EIS,863.05,3.48683,-0.00599724,457090,1.53001,86.7706,0.0861903,-1.52758,1.06558,0.00649416,0.00993611,1380,0.0030191,3.48683
3,1,Potentiostatic EIS,865.765,3.48684,-0.00577237,436517,1.46726,86.7034,0.0843734,-1.46483,1.12062,0.00677399,0.00993928,1345,0.00308121,3.48684
3,1,Potentiostatic EIS,868.533,3.48682,-0.00596235,416871,1.40366,86.5229,0.0851309,-1.40108,1.23523,0.00707971,0.0099375,1355,0.00325041,3.48682
3,1,Potentiostatic EIS,871.288,3.48682,-0.00623889,398109,1.34176,86.4371,0.0833826,-1.33916,1.12347,0.00742125,0.00995752,1400,0.00351663,3.48682
3,1,Potentiostatic EIS,874.08,3.4868,-0.00610563,380191,1.28157,86.2807,0.0831329,-1.27887,1.22783,0.00775907,0.00994386,1400,0.00368236,3.4868
3,1,Potentiostatic EIS,876.923,3.4868,-0.00671001,363079,1.22364,86.3285,0.078357,-1.22113,1.09812,0.00812278,0.0099394,1365,0.00375951,3.4868
3,1,Potentiostatic EIS,879.825,3.48679,-0.00689978,346738,1.17014,86.279,0.07594,-1.16767,1.15487,0.00849074,0.0099353,1375,0.00396553,3.48679
3,1,Potentiostatic EIS,882.768,3.48679,-0.00742698,331132.5,1.11956,86.0794,0.076549,-1.11694,1.24901,0.00888281,0.00994484,1355,0.00409202,3.48679
3,1,Potentiostatic EIS,885.777,3.48676,-0.00748927,316229,1.07105,86.0239,0.0742663,-1.06848,1.13419,0.00929079,0.00995095,1370,0.0043323,3.48676
3,1,Potentiostatic EIS,888.856,3.48675,-0.00759445,301997,1.02328,85.8212,0.0745661,-1.02056,1.2173,0.0097147,0.00994099,1365,0.00451992,3.48675
3,1,Potentiostatic EIS,891.981,3.48675,-0.00742921,288405,0.980545,85.6226,0.07484,-0.977685,1.03175,0.0101471,0.00994965,1340,0.00464625,3.48675
3,1,Potentiostatic EIS,895.167,3.48673,-0.0076873,275424,0.941037,85.5502,0.0730116,-0.9382,1.18008,0.0105939,0.00996928,1355,0.00491968,3.48673
3,1,Potentiostatic EIS,898.565,3.48673,-0.00832796,263028,0.897948,85.3794,0.0723356,-0.89503,1.07196,0.0110907,0.0099589,1355,0.00515154,3.48673
3,1,Potentiostatic EIS,901.886,3.48671,-0.00852656,251190,0.860128,85.3213,0.0701592,-0.857261,1.2441,0.0115722,0.00995359,1340,0.00533461,3.48671
3,1,Potentiostatic EIS,905.274,3.48669,-0.00879767,239885,0.823013,85.314,0.0672363,-0.820262,1.3176,0.0120882,0.00994881,1365,0.00569023,3.48669
3,1,Potentiostatic EIS,908.748,3.48667,-0.00920497,229088.125,0.786457,85.3329,0.0639914,-0.783849,1.29344,0.0125442,0.00986543,1380,0.00602388,3.48667
3,1,Potentiostatic EIS,912.317,3.48665,-0.00945192,218777,0.752652,85.239,0.0624695,-0.750055,1.22052,0.0130346,0.00981082,1345,0.0061478,3.48665
3,1,Potentiostatic EIS,915.959,3.48667,-0.0091196,208931,0.718224,85.1945,0.0601682,-0.715699,1.13871,0.0135332,0.00972033,1350,0.00646146,3.48667
3,1,Potentiostatic EIS,919.7,3.48665,-0.00930993,199528,0.686244,85.0485,0.0592308,-0.683683,1.26047,0.0140556,0.00964514,1355,0.00679104,3.48665
3,1,Potentiostatic EIS,923.751,3.48662,-0.0100644,190547,0.657711,84.7679,0.0599769,-0.65497,1.23421,0.0151253,0.00994813,1355,0.00711109,3.48662
3,1,Potentiostatic EIS,928.013,3.48662,-0.0094943,181971,0.630026,84.6537,0.0587025,-0.627285,1.39886,0.0157724,0.00993698,1360,0.0074737,3.48662
3,1,Potentiostatic EIS,932.381,3.48662,-0.00962746,173781,0.603846,84.4273,0.0586383,-0.600992,1.30357,0.0164912,0.00995825,1365,0.0078547,3.48662
3,1,Potentiostatic EIS,936.874,3.48658,-0.0104463,165960,0.577685,84.3238,0.0571367,-0.574852,1.36417,0.0172309,0.00995406,1375,0.00828513,3.48658
3,1,Potentiostatic EIS,941.482,3.48661,-0.0100489,158491,0.552245,84.0854,0.0569067,-0.549305,1.39237,0.0180279,0.00995582,1360,0.00858096,3.48661
3,1,Potentiostatic EIS,946.187,3.48659,-0.0102996,151357,0.530574,84.1374,0.0541942,-0.527799,1.33038,0.0187689,0.00995829,1350,0.00891929,3.48659
3,1,Potentiostatic EIS,951.02,3.48657,-0.0106526,144545,0.506386,84.0935,0.0521096,-0.503698,1.22805,0.019709,0.00998028,1355,0.00937423,3.48657
3,1,Potentiostatic EIS,955.994,3.48655,-0.0111147,138040,0.485949,83.9567,0.051161,-0.483248,1.36571,0.0205735,0.00999777,1365,0.00988847,3.48655
3,1,Potentiostatic EIS,961.114,3.48655,-0.0108246,131826.75,0.464508,83.7881,0.0502622,-0.461781,1.54345,0.0214368,0.00995768,1365,0.0103545,3.48655
3,1,Potentiostatic EIS,966.612,3.48654,-0.0113124,125894,0.445389,83.4299,0.0509607,-0.442464,1.26439,0.0224169,0.00998427,1370,0.0108822,3.48654
3,1,Potentiostatic EIS,972.043,3.48648,-0.0121313,120228,0.425687,83.2806,0.0498086,-0.422763,1.26742,0.0234831,0.00999644,1370,0.0113951,3.48648
3,1,Potentiostatic EIS,977.63,3.48648,-0.0124805,114816,0.407151,83.0942,0.0489545,-0.404197,1.46184,0.0245117,0.00997995,1360,0.011845,3.48648
3,1,Potentiostatic EIS,983.387,3.48645,-0.0127543,109649,0.389388,82.857,0.0484189,-0.386366,1.42161,0.0256269,0.00997887,1365,0.0124488,3.48645
3,1,Potentiostatic EIS,989.328,3.48646,-0.0123158,104714,0.372034,82.8298,0.0464363,-0.369125,1.47685,0.0267869,0.0099657,1370,0.0130833,3.48646
3,1,Potentiostatic EIS,995.448,3.48644,-0.0128115,100001,0.355561,82.7081,0.0451292,-0.352685,1.60922,0.0279544,0.00993953,1370,0.0136999,3.48644
3,1,Potentiostatic EIS,1001.23,3.48645,-0.0122207,95500.1,0.341282,82.5054,0.0445141,-0.338366,1.48751,0.0292232,0.00997338,1370,0.0143455,3.48645
3,1,Potentiostatic EIS,1007.21,3.48641,-0.0126918,91202,0.327136,82.3476,0.0435621,-0.324222,1.61456,0.0304991,0.00997737,1370,0.0150216,3.48641
3,1,Potentiostatic EIS,1013.37,3.48641,-0.013225,87097.2,0.313517,82.0481,0.0433727,-0.310503,1.60007,0.0318397,0.00998229,1355,0.0155573,3.48641
3,1,Potentiostatic EIS,1019.75,3.48637,-0.0134259,83177.3,0.30011,81.8035,0.0427864,-0.297045,1.55567,0.0332884,0.00999024,1365,0.0164107,3.48637
3,1,Potentiostatic EIS,1026.34,3.48637,-0.0131448,79433.6,0.287415,81.4753,0.0426053,-0.28424,1.60166,0.034734,0.00998309,1365,0.0171842,3.48637
3,1,Potentiostatic EIS,1033.17,3.48632,-0.014194,75858.6,0.274806,81.3521,0.0413203,-0.271682,1.50782,0.0363152,0.0099796,1370,0.0180599,3.48632
3,1,Potentiostatic EIS,1040.22,3.48632,-0.0143981,72444.3,0.26361,81.1526,0.0405443,-0.260473,1.64068,0.0378702,0.00998296,1370,0.0189111,3.48632
3,1,Potentiostatic EIS,1047.54,3.4863,-0.0137175,69183.9,0.25194,80.9287,0.0397218,-0.248789,1.51428,0.0395683,0.00996884,1365,0.01973,3.4863
3,1,Potentiostatic EIS,1054.06,3.48632,-0.0140243,66070.1,0.241799,80.76,0.0388258,-0.238662,1.65025,0.0411902,0.00995978,1350,0.0204329,3.48632
3,1,Potentiostatic EIS,1056.58,3.48628,-0.0147522,63096.5,0.231206,80.5208,0.0380774,-0.228049,1.56902,0.0431994,0.0099881,1290,0.0204449,3.48628
3,1,Potentiostatic EIS,1059.09,3.48626,-0.0149466,60256.7,0.221709,80.1019,0.0381111,-0.218409,1.49729,0.0450276,0.00998308,1230,0.0204127,3.48626
3,1,Potentiostatic EIS,1061.59,3.48625,-0.0147369,57544.7,0.212418,79.8181,0.0375501,-0.209073,1.50614,0.0470471,0.00999365,1175,0.0204189,3.48625
3,1,Potentiostatic EIS,1064.09,3.48625,-0.0153226,54954.7,0.203687,79.6039,0.0367557,-0.200343,1.69341,0.0491052,0.010002,1125,0.0204714,3.48625
3,1,Potentiostatic EIS,1066.61,3.48622,-0.0152003,52481.4,0.194384,79.2262,0.0363365,-0.190957,1.69884,0.0513427,0.00998023,1070,0.0203882,3.48622
3,1,Potentiostatic EIS,1069.12,3.48622,-0.0159711,50119.3,0.186111,79.1298,0.0350977,-0.182772,1.79075,0.053484,0.00995528,1025,0.0204512,3.48622
3,1,Potentiostatic EIS,1069.38,3.48628,-0.0157447,50000,0.184716,78.7567,0.036015,-0.181171,1.77835,0.0539714,0.00997215,1020,0.0204,3.48628