File: Data/P190_04/EIS_08_P190_04_1/2_EIS_08_P190_04_1 20231019 115458.csv
Step number,Repeats,Step name,Elapsed Time  (s),DC Working Electrode (V),DC Current (A),Frequency (Hz),|Z| (Ohms),Phase (deg),Z' (Ohms),-Z" (Ohms),THD (%),Amplitude (A),Amplitude (V),No of Cycles,Duration of Each Frequency (s),IR Compensated DC Working Electrode (V)
2,1,Potentiostatic EIS,60.2973,3.48942,-0.0129082,1000000,3.57876,89.067,0.0582745,-3.57829,0.720368,0.00276013,0.00987724,1430,0.00143,3.48942
2,1,Potentiostatic EIS,60.9788,3.48937,-0.0137745,707946,2.55559,88.4367,0.0697178,-2.55464,0.727989,0.00388028,0.00991626,1340,0.0018928,3.48937
2,1,Potentiostatic EIS,61.7033,3.48931,-0.0147713,501187,1.82058,87.9633,0.0647027,-1.81943,0.80212,0.00533334,0.00970993,1385,0.00276344,3.48931
2,1,Potentiostatic EIS,62.5309,3.48924,-0.0160345,354813,1.29616,86.9955,0.067937,-1.29438,0.80372,0.00766481,0.00993484,1365,0.00384709,3.48924
2,1,Potentiostatic EIS,63.4758,3.48918,-0.017371,251189,0.926378,85.9656,0.0651759,-0.924082,0.860827,0.0107768,0.00998335,1340,0.00533464,3.48918
2,1,Potentiostatic EIS,64.7467,3.48911,-0.0184786,177828,0.663379,85.2704,0.0546974,-0.66112,0.982324,0.0145606,0.00965975,1355,0.00761973,3.48911
2,1,Potentiostatic EIS,66.2316,3.48899,-0.0209044,125892,0.476546,84.1678,0.0484245,-0.47408,1.29269,0.0209323,0.00997519,1370,0.0108823,3.48899
2,1,Potentiostatic EIS,68.227,3.48889,-0.022416,89125.1,0.341236,82.7984,0.042778,-0.338544,1.43267,0.0292901,0.00999486,1365,0.0153156,3.48889
2,1,Potentiostatic EIS,69.8639,3.48878,-0.0248988,63095.7,0.24499,80.8998,0.0387478,-0.241906,1.53988,0.0407176,0.0099754,1290,0.0204451,3.48878
2,1,Potentiostatic EIS,70.6105,3.4887,-0.0262134,44668.3,0.176631,77.848,0.037182,-0.172673,1.7868,0.0563929,0.00996074,910,0.0203724,3.4887
2,1,Potentiostatic EIS,71.5501,3.48916,-0.0138928,31622.8,0.128827,74.4801,0.0344707,-0.124129,4.73269,0.0776275,0.0100005,645,0.0203967,3.48916
2,1,Potentiostatic EIS,72.1513,3.4896,-0.00491102,22387.2,0.0939483,69.822,0.0324064,-0.0881823,5.66629,0.10309,0.00968391,455,0.0203241,3.4896
2,1,Potentiostatic EIS,72.7599,3.48958,-0.00377319,15848.9,0.0703184,63.5336,0.0313391,-0.0629487,6.41556,0.139921,0.00983902,320,0.0201906,3.48958
2,1,Potentiostatic EIS,73.3605,3.48957,-0.00392147,11220.2,0.0545646,55.3932,0.0309895,-0.0449104,6.64175,0.182827,0.0099759,225,0.0200532,3.48957
2,1,Potentiostatic EIS,74.0447,3.48981,-0.00365881,7943.27,0.0441615,47.442,0.029868,-0.032529,3.94208,0.238178,0.0105183,244,0.0307178,3.48981
2,1,Potentiostatic EIS,74.6778,3.48987,-0.0024246,5623.41,0.0364674,37.0457,0.0291066,-0.0219698,4.54141,0.282521,0.0103028,172,0.0305864,3.48987
2,1,Potentiostatic EIS,75.2682,3.48989,-0.00212411,3981.07,0.0331982,27.224,0.0295207,-0.0151872,4.34598,0.272882,0.0090592,122,0.0306451,3.48989
2,1,Potentiostatic EIS,75.7692,3.48989,-0.00196954,2818.38,0.0313886,19.245,0.0296345,-0.0103459,3.72833,0.332141,0.0104254,86,0.030514,3.48989
2,1,Potentiostatic EIS,76.2695,3.48994,-0.00139897,1995.26,0.0305787,12.7572,0.0298238,-0.00675239,3.16397,0.331935,0.0101501,61,0.0305725,3.48994
2,1,Potentiostatic EIS,76.6389,3.48993,-0.00130214,1412.53,0.0303679,7.73417,0.0300916,-0.00408682,2.76551,0.342697,0.010407,43,0.0304417,3.48993
2,1,Potentiostatic EIS,77.0064,3.48994,-0.0014968,999.999,0.0304962,3.98463,0.0304225,-0.00211915,2.38947,0.334284,0.0101944,30,0.03,3.48994
2,1,Potentiostatic EIS,77.3743,3.48996,-0.000873787,707.945,0.0309029,1.19475,0.0308962,-0.000644349,2.21825,0.326035,0.0100754,21,0.0296633,3.48996
2,1,Potentiostatic EIS,77.7453,3.48997,-0.0005706,501.185,0.0314679,-0.896173,0.031464,0.000492174,1.9871,0.31915,0.010043,15,0.029929,3.48997
2,1,Potentiostatic EIS,77.9823,3.48998,-0.000551744,354.813,0.0321039,-2.39164,0.032076,0.00133969,1.78219,0.284782,0.00914261,10,0.0281839,3.48998
2,1,Potentiostatic EIS,78.2192,3.48996,-0.0006634,251.188,0.0328561,-3.40856,0.032798,0.00195348,1.52419,0.291432,0.00957534,8,0.0318487,3.48996
2,1,Potentiostatic EIS,78.4852,3.48996,-0.000567658,177.828,0.0336695,-4.06225,0.0335849,0.00238516,1.2314,0.290592,0.00978409,8,0.0449874,3.48996
2,1,Potentiostatic EIS,78.8016,3.48997,-0.000280117,125.892,0.0344768,-4.40831,0.0343748,0.00265001,0.947189,0.286444,0.00987566,8,0.0635464,3.48997
2,1,Potentiostatic EIS,79.1893,3.48996,-0.000725137,89.1248,0.0353003,-4.53018,0.03519,0.00278816,0.702136,0.280798,0.00991224,8,0.0897617,3.48996
2,1,Potentiostatic EIS,79.683,3.48996,-0.000317519,63.0956,0.0360612,-4.41618,0.0359541,0.00277673,0.518603,0.27507,0.00991934,8,0.126792,3.48996
2,1,Potentiostatic EIS,80.3261,3.48996,-0.000669755,44.6682,0.0367884,-4.20171,0.0366895,0.00269541,0.361139,0.264476,0.00972965,8,0.179098,3.48996
2,1,Potentiostatic EIS,81.0081,3.48996,-0.00101712,31.6227,0.0374259,-3.88988,0.0373397,0.00253894,0.311376,0.264267,0.00989052,2,0.0632458,3.48996
2,1,Potentiostatic EIS,81.4971,3.48997,-0.000983029,22.3871,0.038013,-3.49005,0.0379425,0.00231405,0.221556,0.255013,0.00969383,2,0.0893371,3.48997
2,1,Potentiostatic EIS,82.1666,3.48997,-0.000776534,15.8489,0.0385207,-3.09964,0.0384643,0.00208291,0.200803,0.254899,0.00981888,2,0.126192,3.48997
2,1,Potentiostatic EIS,83.0903,3.48997,-0.000864893,11.2201,0.0389404,-2.72304,0.0388964,0.00184999,0.19469,0.254199,0.00989854,2,0.178251,3.48997
2,1,Potentiostatic EIS,84.3723,3.48997,-0.00102236,7.94325,0.0392622,-2.35555,0.039229,0.00161369,0.209531,0.252764,0.00992405,2,0.251786,3.48997
2,1,Potentiostatic EIS,86.1603,3.48998,-0.00107099,5.62339,0.0395488,-2.10053,0.0395223,0.00144958,0.177042,0.251361,0.00994105,2,0.355657,3.48998
2,1,Potentiostatic EIS,88.6579,3.48998,-0.00125208,3.98106,0.0397684,-1.89885,0.0397465,0.00131773,0.187055,0.250274,0.00995299,2,0.502378,3.48998
2,1,Potentiostatic EIS,92.1671,3.48997,-0.00152081,2.81837,0.0399734,-1.74915,0.0399548,0.00122014,0.189758,0.248962,0.00995187,2,0.70963,3.48997
2,1,Potentiostatic EIS,97.1065,3.48997,-0.00148619,1.99526,0.0401665,-1.64992,0.0401499,0.0011565,0.192792,0.247846,0.0099551,2,1.00238,3.48997
2,1,Potentiostatic EIS,104.065,3.48998,-0.00155126,1.41253,0.0403368,-1.63274,0.0403204,0.00114931,0.201211,0.247008,0.0099635,2,1.4159,3.48998
2,1,Potentiostatic EIS,113.878,3.48997,-0.00165783,0.999995,0.0405046,-1.67607,0.0404873,0.00118471,0.177363,0.245769,0.00995479,2,2.00001,3.48997
2,1,Potentiostatic EIS,127.722,3.48996,-0.00165842,0.707944,0.040678,-1.79991,0.040658,0.00127767,0.193888,0.244703,0.00995401,2,2.82508,3.48996
2,1,Potentiostatic EIS,147.26,3.48997,-0.00166906,0.501186,0.0408767,-1.97435,0.0408524,0.00140829,0.147037,0.243637,0.00995908,2,3.99054,3.48997
2,1,Potentiostatic EIS,174.843,3.48996,-0.00129344,0.354812,0.0410853,-2.20707,0.0410549,0.00158224,0.180221,0.242416,0.00995975,2,5.63679,3.48996
2,1,Potentiostatic EIS,213.772,3.48995,-0.000988231,0.251188,0.0412924,-2.51179,0.0412528,0.00180964,0.154078,0.241166,0.00995833,2,7.96218,3.48995
2,1,Potentiostatic EIS,268.744,3.48995,-0.00027972,0.177827,0.0416459,-2.86707,0.0415938,0.00208308,0.187373,0.239177,0.00996077,2,11.2469,3.48995
2,1,Potentiostatic EIS,346.391,3.48996,-0.000210181,0.125892,0.0418302,-3.3866,0.0417571,0.00247103,0.169699,0.238131,0.00996103,2,15.8867,3.48996
2,1,Potentiostatic EIS,456.042,3.48995,-0.000199867,0.0891246,0.0419983,-4.02459,0.0418947,0.00294763,0.155335,0.237164,0.00996048,2,22.4405,3.48995
2,1,Potentiostatic EIS,610.897,3.48995,0.000322336,0.0630955,0.0422806,-4.8405,0.0421298,0.00356773,0.170699,0.235593,0.009961,2,31.698,3.48995
2,1,Potentiostatic EIS,820.92,3.48995,4.29463e-05,0.05,0.0425072,-5.48399,0.0423126,0.00406231,0.175755,0.234375,0.00996261,2,40,3.48995