File: Data/P190_04/EIS_08_P190_04_1/3_EIS_08_P190_04_1 20231019 120739.csv
Step number,Repeats,Step name,Elapsed Time  (s),DC Working Electrode (V),DC Current (A),Frequency (Hz),|Z| (Ohms),Phase (deg),Z' (Ohms),-Z" (Ohms),THD (%),Amplitude (A),Amplitude (V),No of Cycles,Duration of Each Frequency (s),IR Compensated DC Working Electrode (V)
3,1,Potentiostatic EIS,821.282,3.48936,0.0153085,1000000,3.55129,89.0106,0.0613237,-3.55076,0.735557,0.00279601,0.00992975,1430,0.00143,3.48936
3,1,Potentiostatic EIS,823.546,3.48937,0.00694227,954993,3.40593,88.7343,0.0752341,-3.4051,0.739347,0.00289058,0.00984503,1425,0.00149216,3.48937
3,1,Potentiostatic EIS,825.803,3.48937,0.00419365,912011,3.25201,88.5613,0.0816507,-3.25099,0.723123,0.00303278,0.00986269,1425,0.00156248,3.48937
3,1,Potentiostatic EIS,828.054,3.48936,0.00209921,870964,3.11107,88.4987,0.0815076,-3.11,0.646331,0.00318426,0.0099065,1390,0.00159593,3.48936
3,1,Potentiostatic EIS,830.391,3.48936,0.000712873,831764.375,2.98964,88.2194,0.0928941,-2.9882,0.591197,0.00334152,0.00998987,1400,0.00168317,3.48936
3,1,Potentiostatic EIS,832.608,3.48934,-0.00028001,794329,2.86633,88.1528,0.0923949,-2.86484,0.921668,0.00349799,0.0100264,1445,0.00181915,3.48934
3,1,Potentiostatic EIS,834.849,3.48936,-0.000690375,758578,2.73789,88.1774,0.08708,-2.7365,0.53844,0.00365301,0.0100016,1370,0.00180601,3.48936
3,1,Potentiostatic EIS,837.269,3.48934,-0.00164748,724437,2.60759,88.4398,0.0709969,-2.60662,0.608023,0.00380551,0.00992316,1340,0.00184971,3.48934
3,1,Potentiostatic EIS,839.594,3.48933,-0.00233305,691832,2.49298,88.349,0.0718272,-2.49194,0.630502,0.00398217,0.00992733,1350,0.00195134,3.48933
3,1,Potentiostatic EIS,841.944,3.48933,-0.00239029,660695,2.38167,88.1646,0.0762806,-2.38045,0.6235,0.00416369,0.00991647,1400,0.00211898,3.48933
3,1,Potentiostatic EIS,844.306,3.48931,-0.00304509,630959,2.27216,87.9308,0.0820417,-2.27068,0.681936,0.00437453,0.00993957,1355,0.00214753,3.48931
3,1,Potentiostatic EIS,846.682,3.48932,-0.00333355,602560.875,2.17017,87.8399,0.0817991,-2.16863,0.628948,0.00456438,0.00990551,1350,0.00224044,3.48932
3,1,Potentiostatic EIS,849.078,3.4893,-0.00371117,575441.125,2.07616,87.8724,0.0770788,-2.07473,0.661007,0.00475204,0.00986602,1385,0.00240685,3.4893
3,1,Potentiostatic EIS,851.506,3.48928,-0.00406642,549542,1.9846,87.9132,0.0722677,-1.98328,0.692895,0.00494039,0.00980495,1345,0.00244749,3.48928
3,1,Potentiostatic EIS,853.96,3.4893,-0.00420565,524808.75,1.8939,87.966,0.067221,-1.89271,0.657224,0.00515309,0.00975941,1345,0.00256284,3.4893
3,1,Potentiostatic EIS,856.438,3.48928,-0.00456988,501188,1.81361,87.939,0.0652236,-1.81244,0.697371,0.00535953,0.00971947,1385,0.00276343,3.48928
3,1,Potentiostatic EIS,858.936,3.48928,-0.00449299,478631,1.73086,87.7169,0.0689528,-1.72948,0.700025,0.00558186,0.00966052,1365,0.00285188,3.48928
3,1,Potentiostatic EIS,861.627,3.48923,-0.0053104,457090,1.65451,87.586,0.0696889,-1.65304,0.640496,0.00601576,0.00995312,1380,0.0030191,3.48923
3,1,Potentiostatic EIS,864.33,3.48924,-0.00526263,436517,1.58336,87.3684,0.0726986,-1.58169,0.67967,0.00628792,0.00995607,1345,0.00308121,3.48924
3,1,Potentiostatic EIS,867.03,3.48926,-0.00498273,416871,1.51532,87.2375,0.0730319,-1.51356,0.662609,0.00657551,0.00996398,1355,0.00325041,3.48926
3,1,Potentiostatic EIS,869.761,3.48923,-0.00530045,398109,1.44842,87.156,0.0718667,-1.44664,0.720878,0.00686172,0.0099387,1400,0.00351663,3.48923
3,1,Potentiostatic EIS,872.536,3.48925,-0.00549088,380191,1.38246,87.1161,0.0695548,-1.38071,0.65073,0.0072014,0.00995564,1400,0.00368236,3.48925
3,1,Potentiostatic EIS,875.348,3.48921,-0.00607753,363079,1.31946,87.031,0.0683419,-1.31769,0.716924,0.00752934,0.00993465,1365,0.00375951,3.48921
3,1,Potentiostatic EIS,878.225,3.48922,-0.00574829,346738,1.26103,86.9338,0.0674513,-1.25922,0.719035,0.00788355,0.00994139,1375,0.00396553,3.48922
3,1,Potentiostatic EIS,881.15,3.48922,-0.00589324,331132.5,1.2052,86.8829,0.0655352,-1.20341,0.653926,0.00823459,0.00992432,1355,0.00409202,3.48922
3,1,Potentiostatic EIS,884.129,3.4892,-0.00599601,316229,1.15178,86.747,0.0653573,-1.14993,0.585084,0.00862381,0.00993274,1370,0.0043323,3.4892
3,1,Potentiostatic EIS,887.158,3.48919,-0.00659892,301997,1.10194,86.6632,0.0641395,-1.10008,0.745276,0.00902356,0.00994347,1365,0.00451992,3.48919
3,1,Potentiostatic EIS,890.256,3.48918,-0.00669686,288405,1.05585,86.4251,0.0658351,-1.05379,0.644752,0.00942863,0.00995522,1340,0.00464625,3.48918
3,1,Potentiostatic EIS,893.429,3.48917,-0.0068217,275424,1.0094,86.3093,0.064975,-1.00731,0.767863,0.00987614,0.00996897,1355,0.00491968,3.48917
3,1,Potentiostatic EIS,896.645,3.48917,-0.00690134,263028,0.964959,86.1545,0.0647157,-0.962787,0.68667,0.0103199,0.0099583,1355,0.00515154,3.48917
3,1,Potentiostatic EIS,899.944,3.48917,-0.00679521,251190,0.924716,86.0984,0.062921,-0.922572,0.708739,0.0108065,0.00999297,1340,0.00533461,3.48917
3,1,Potentiostatic EIS,903.307,3.48916,-0.00714677,239885,0.883609,85.9989,0.061654,-0.881456,0.704961,0.011274,0.0099618,1365,0.00569023,3.48916
3,1,Potentiostatic EIS,906.895,3.48914,-0.00728201,229088.125,0.843705,86.0172,0.0586018,-0.841668,0.833483,0.0118081,0.00996261,1380,0.00602388,3.48914
3,1,Potentiostatic EIS,910.405,3.48912,-0.00765415,218777,0.806419,85.9956,0.0563149,-0.80445,0.771446,0.0123187,0.00993405,1345,0.0061478,3.48912
3,1,Potentiostatic EIS,914.017,3.48911,-0.00793391,208931,0.770633,85.8598,0.0556382,-0.768622,0.776115,0.0127807,0.00984929,1350,0.00646146,3.48911
3,1,Potentiostatic EIS,917.724,3.48909,-0.00826786,199528,0.734876,85.8489,0.0531949,-0.732948,0.812952,0.0132851,0.009763,1355,0.00679104,3.48909
3,1,Potentiostatic EIS,921.506,3.4891,-0.0081605,190547,0.704638,85.6827,0.0530449,-0.702639,0.77905,0.0137746,0.00970608,1355,0.00711109,3.4891
3,1,Potentiostatic EIS,925.388,3.48908,-0.00842352,181971,0.674388,85.4725,0.053235,-0.672283,0.815066,0.0143476,0.00967615,1360,0.0074737,3.48908
3,1,Potentiostatic EIS,929.658,3.48906,-0.00875735,173781,0.646444,85.2238,0.0538252,-0.644199,0.824618,0.015438,0.00997979,1365,0.0078547,3.48906
3,1,Potentiostatic EIS,934.115,3.48907,-0.00866447,165960,0.618107,85.0721,0.0530965,-0.615822,0.729423,0.0161105,0.00995806,1375,0.00828513,3.48907
3,1,Potentiostatic EIS,938.671,3.48905,-0.00878655,158491,0.590948,84.9125,0.052404,-0.58862,0.783072,0.0168536,0.00995959,1360,0.00858096,3.48905
3,1,Potentiostatic EIS,943.352,3.48905,-0.00861367,151357,0.565327,84.8775,0.0504756,-0.563069,0.915788,0.0176359,0.00997001,1350,0.00891929,3.48905
3,1,Potentiostatic EIS,948.172,3.48904,-0.0088254,144545,0.540552,84.8637,0.048393,-0.538381,0.871696,0.0184455,0.00997077,1355,0.00937423,3.48904
3,1,Potentiostatic EIS,953.14,3.48902,-0.00916176,138040,0.518293,84.6478,0.0483452,-0.516033,1.02472,0.0192581,0.00998132,1365,0.00988847,3.48902
3,1,Potentiostatic EIS,958.247,3.48899,-0.00952757,131826.75,0.495451,84.456,0.0478659,-0.493134,1.14695,0.0201488,0.00998278,1365,0.0103545,3.48899
3,1,Potentiostatic EIS,963.488,3.48896,-0.0102954,125894,0.474644,84.2133,0.0478565,-0.472225,0.941674,0.0210278,0.00998069,1370,0.0108822,3.48896
3,1,Potentiostatic EIS,968.972,3.48896,-0.0100734,120228,0.453822,83.9939,0.0474853,-0.451331,0.915546,0.0220472,0.0100055,1370,0.0113951,3.48896
3,1,Potentiostatic EIS,974.675,3.48896,-0.00988336,114816,0.433788,83.8296,0.0466262,-0.431275,1.02119,0.0230298,0.00999005,1360,0.011845,3.48896
3,1,Potentiostatic EIS,980.405,3.48893,-0.010737,109649,0.414534,83.6272,0.0460123,-0.411972,0.999774,0.0240635,0.00997512,1365,0.0124488,3.48893
3,1,Potentiostatic EIS,986.315,3.48892,-0.010864,104714,0.396239,83.4612,0.0451222,-0.393661,1.03622,0.0251777,0.0099764,1370,0.0130833,3.48892
3,1,Potentiostatic EIS,992.408,3.48889,-0.0111957,100001,0.378929,83.3705,0.0437466,-0.376395,1.3079,0.0262816,0.00995886,1370,0.0136999,3.48889
3,1,Potentiostatic EIS,998.162,3.48887,-0.0112865,95500.1,0.362984,83.1056,0.0435725,-0.36036,1.09337,0.0274662,0.0099698,1370,0.0143455,3.48887
3,1,Potentiostatic EIS,1004.11,3.48887,-0.0111946,91202,0.347333,82.9281,0.042762,-0.34469,1.1746,0.028715,0.00997367,1370,0.0150216,3.48887
3,1,Potentiostatic EIS,1010.27,3.48887,-0.0109257,87097.2,0.332101,82.7217,0.0420738,-0.329425,1.16298,0.0300723,0.00998703,1355,0.0155573,3.48887
3,1,Potentiostatic EIS,1016.62,3.48886,-0.0110719,83177.3,0.317962,82.511,0.041442,-0.315249,1.15437,0.031425,0.00999196,1365,0.0164107,3.48886
3,1,Potentiostatic EIS,1023.19,3.48882,-0.0116428,79433.6,0.304387,82.1827,0.041401,-0.301558,1.28589,0.0328087,0.00998653,1365,0.0171842,3.48882
3,1,Potentiostatic EIS,1029.98,3.48882,-0.0116442,75858.6,0.291328,81.9054,0.0410213,-0.288425,1.14863,0.0342462,0.0099769,1370,0.0180599,3.48882
3,1,Potentiostatic EIS,1036.99,3.4888,-0.0119289,72444.3,0.278346,81.7375,0.0400007,-0.275457,1.24118,0.0358272,0.00997236,1370,0.0189111,3.4888
3,1,Potentiostatic EIS,1044.26,3.48881,-0.011512,69183.9,0.266161,81.4607,0.0395216,-0.26321,1.22037,0.0374116,0.00995751,1365,0.01973,3.48881
3,1,Potentiostatic EIS,1050.75,3.48879,-0.0123485,66070.1,0.254719,81.2414,0.0387864,-0.251749,1.26672,0.0391959,0.00998395,1350,0.0204329,3.48879
3,1,Potentiostatic EIS,1053.23,3.48876,-0.0125213,63096.5,0.24365,81.0638,0.0378474,-0.240693,1.336,0.0409188,0.00996988,1290,0.0204449,3.48876
3,1,Potentiostatic EIS,1055.72,3.48878,-0.0124097,60256.7,0.233392,80.7007,0.0377143,-0.230324,1.35248,0.0426833,0.00996193,1230,0.0204127,3.48878
3,1,Potentiostatic EIS,1058.2,3.48872,-0.0129255,57544.7,0.224098,80.3279,0.0376506,-0.220913,1.40299,0.04458,0.00999037,1175,0.0204189,3.48872
3,1,Potentiostatic EIS,1060.69,3.48872,-0.0135859,54954.7,0.214419,80.0262,0.0371367,-0.211178,1.41421,0.0465732,0.00998621,1125,0.0204714,3.48872
3,1,Potentiostatic EIS,1063.16,3.48866,-0.0139272,52481.4,0.204965,79.6537,0.0368112,-0.201632,1.27717,0.0485805,0.00995732,1070,0.0203882,3.48866
3,1,Potentiostatic EIS,1065.66,3.48868,-0.0139097,50119.3,0.195161,79.1284,0.0368092,-0.191659,1.45969,0.0509128,0.00993812,1025,0.0204512,3.48868
3,1,Potentiostatic EIS,1065.91,3.48867,-0.0138089,50000,0.195685,79.6528,0.0351474,-0.192502,1.41899,0.0503839,0.00986227,1020,0.0204,3.48867