File: Data/P190/P190_04/EIS_08_P190_04_5/2_EIS_08_P190_04_5 20231019 145737.csv
Step number,Repeats,Step name,Elapsed Time  (s),DC Working Electrode (V),DC Current (A),Frequency (Hz),|Z| (Ohms),Phase (deg),Z' (Ohms),-Z" (Ohms),THD (%),Amplitude (A),Amplitude (V),No of Cycles,Duration of Each Frequency (s),IR Compensated DC Working Electrode (V)
2,1,Potentiostatic EIS,60.2988,3.48634,-0.0140647,1000000,2.83486,87.5797,0.119714,-2.83233,1.00598,0.00350832,0.00994562,1430,0.00143,3.48634
2,1,Potentiostatic EIS,60.9964,3.48627,-0.0157786,707946,2.03743,87.2976,0.0960611,-2.03517,1.08052,0.00482752,0.00983525,1340,0.0018928,3.48627
2,1,Potentiostatic EIS,61.7636,3.48619,-0.0173195,501187,1.45685,86.6124,0.0860861,-1.4543,1.20338,0.00682594,0.00994443,1385,0.00276344,3.48619
2,1,Potentiostatic EIS,62.613,3.48613,-0.0189554,354813,1.04221,85.4472,0.0827288,-1.03892,1.23615,0.00954743,0.00995043,1365,0.00384709,3.48613
2,1,Potentiostatic EIS,63.7061,3.48602,-0.0212848,251189,0.749947,84.3859,0.0733653,-0.74635,1.26873,0.013062,0.0097965,1340,0.00533464,3.48602
2,1,Potentiostatic EIS,64.945,3.48593,-0.0235067,177828,0.540954,83.5723,0.0605597,-0.537554,1.39608,0.0184114,0.00995974,1355,0.00761973,3.48593
2,1,Potentiostatic EIS,66.6442,3.4858,-0.0265849,125892,0.391786,82.112,0.0537672,-0.388079,1.62947,0.0255508,0.0100105,1370,0.0108823,3.4858
2,1,Potentiostatic EIS,68.3979,3.48568,-0.029855,89125.1,0.283494,80.7944,0.0453527,-0.279843,1.86263,0.035303,0.0100082,1365,0.0153156,3.48568
2,1,Potentiostatic EIS,70.0473,3.48556,-0.0326678,63095.7,0.205456,78.9947,0.0392215,-0.201678,1.88824,0.0481748,0.00989807,1290,0.0204451,3.48556
2,1,Potentiostatic EIS,70.9971,3.48597,-0.0187393,44668.3,0.149781,76.1212,0.0359278,-0.145408,3.44518,0.0645675,0.00967055,910,0.0203724,3.48597
2,1,Potentiostatic EIS,71.6646,3.48605,-0.0160093,31622.8,0.110571,73.1609,0.0320309,-0.10583,5.13408,0.0907683,0.0100364,645,0.0203967,3.48605
2,1,Potentiostatic EIS,72.3231,3.48642,-0.00510543,22387.2,0.0814492,69.1687,0.0289648,-0.076125,6.03261,0.122649,0.00998975,455,0.0203241,3.48642
2,1,Potentiostatic EIS,72.989,3.48644,-0.00452554,15848.9,0.0612702,63.8429,0.02701,-0.0549954,6.60837,0.163285,0.0100045,320,0.0201906,3.48644
2,1,Potentiostatic EIS,73.5985,3.4865,-0.00317858,11220.2,0.0475767,57.0896,0.0258497,-0.0399416,6.71915,0.205563,0.00977958,225,0.0200532,3.4865
2,1,Potentiostatic EIS,74.284,3.4867,-0.00361858,7943.27,0.0380165,50.6444,0.0241074,-0.0293953,3.94146,0.27734,0.0105435,244,0.0307178,3.4867
2,1,Potentiostatic EIS,74.9216,3.48673,-0.00258644,5623.41,0.0305441,40.8253,0.0231129,-0.0199684,4.64204,0.34109,0.0104183,172,0.0305864,3.48673
2,1,Potentiostatic EIS,75.5575,3.48675,-0.00200164,3981.07,0.0270357,31.155,0.0231364,-0.013987,4.49223,0.377658,0.0102102,122,0.0306451,3.48675
2,1,Potentiostatic EIS,76.1059,3.48678,-0.00125602,2818.38,0.0249601,22.7175,0.0230237,-0.0096393,4.0309,0.401229,0.0100147,86,0.030514,3.48678
2,1,Potentiostatic EIS,76.6089,3.48681,-0.000580458,1995.26,0.0239046,15.5374,0.023031,-0.00640327,3.3153,0.429453,0.0102659,61,0.0305725,3.48681
2,1,Potentiostatic EIS,77.0653,3.48681,-0.000505057,1412.53,0.0235012,9.69422,0.0231656,-0.00395736,2.92646,0.372203,0.00874721,43,0.0304417,3.48681
2,1,Potentiostatic EIS,77.4367,3.48682,-0.000125551,999.999,0.0234881,5.22282,0.0233906,-0.0021381,2.50052,0.438341,0.0102958,30,0.03,3.48682
2,1,Potentiostatic EIS,77.8032,3.48683,0.000236674,707.945,0.0237801,1.78802,0.0237685,-0.000741983,2.12377,0.425441,0.010117,21,0.0296633,3.48683
2,1,Potentiostatic EIS,78.1735,3.48684,0.000259103,501.185,0.0242404,-0.718424,0.0242385,0.000303939,1.9512,0.414425,0.0100458,15,0.029929,3.48684
2,1,Potentiostatic EIS,78.4538,3.48685,0.000280538,354.813,0.0248345,-2.55577,0.0248098,0.00110741,1.85343,0.356631,0.00885674,10,0.0281839,3.48685
2,1,Potentiostatic EIS,78.6923,3.48685,0.000900695,251.188,0.0255093,-3.77537,0.0254539,0.00167966,1.60995,0.369763,0.00943239,8,0.0318487,3.48685
2,1,Potentiostatic EIS,78.9589,3.48685,0.000822484,177.828,0.0262268,-4.45913,0.0261475,0.00203908,1.32759,0.370232,0.00971003,8,0.0449874,3.48685
2,1,Potentiostatic EIS,79.2765,3.48684,0.000455617,125.892,0.026936,-4.8386,0.02684,0.00227203,1.07798,0.364983,0.00983119,8,0.0635464,3.48684
2,1,Potentiostatic EIS,79.6639,3.48684,0.000766499,89.1248,0.0276398,-4.9046,0.0275386,0.00236312,0.807292,0.357381,0.00987795,8,0.0897617,3.48684
2,1,Potentiostatic EIS,80.1628,3.48684,0.000534274,63.0956,0.0282903,-4.77026,0.0281923,0.00235264,0.615642,0.34962,0.00989086,8,0.126792,3.48684
2,1,Potentiostatic EIS,80.8083,3.48685,0.000785966,44.6682,0.0288977,-4.5054,0.0288084,0.00227,0.427425,0.335638,0.00969918,8,0.179098,3.48685
2,1,Potentiostatic EIS,81.4947,3.48684,-0.000242914,31.6227,0.0294268,-4.19054,0.0293482,0.00215032,0.343912,0.3356,0.00987566,2,0.0632458,3.48684
2,1,Potentiostatic EIS,81.9831,3.48684,0.000276114,22.3871,0.0299152,-3.74576,0.0298513,0.00195434,0.297651,0.323761,0.00968525,2,0.0893371,3.48684
2,1,Potentiostatic EIS,82.6528,3.48685,0.000289935,15.8489,0.0303279,-3.32926,0.0302767,0.00176126,0.240269,0.323559,0.00981282,2,0.126192,3.48685
2,1,Potentiostatic EIS,83.5775,3.48684,-0.000328168,11.2201,0.0306721,-2.92704,0.0306321,0.00156625,0.211174,0.321891,0.00987311,2,0.178251,3.48684
2,1,Potentiostatic EIS,84.8603,3.48685,-8.40038e-06,7.94325,0.0309596,-2.58656,0.0309281,0.00139717,0.230967,0.319993,0.00990687,2,0.251786,3.48685
2,1,Potentiostatic EIS,86.6522,3.48685,-0.000481261,5.62339,0.0311969,-2.31939,0.0311714,0.00126254,0.206859,0.318136,0.00992487,2,0.355657,3.48685
2,1,Potentiostatic EIS,89.1606,3.48686,-0.000468647,3.98106,0.0313864,-2.10884,0.0313652,0.00115495,0.215718,0.316416,0.00993116,2,0.502378,3.48686
2,1,Potentiostatic EIS,92.6749,3.48685,-0.000745221,2.81837,0.0315905,-1.99305,0.0315714,0.00109866,0.18454,0.314688,0.00994113,2,0.70963,3.48685
2,1,Potentiostatic EIS,97.6146,3.48685,-0.000964826,1.99526,0.031748,-1.93446,0.0317299,0.00107169,0.195915,0.313291,0.00994636,2,1.00238,3.48685
2,1,Potentiostatic EIS,104.574,3.48687,-0.000777915,1.41253,0.0318978,-1.9528,0.0318793,0.00108695,0.1995,0.311614,0.00993977,2,1.4159,3.48687
2,1,Potentiostatic EIS,114.386,3.48686,-0.000894645,0.999995,0.0320467,-2.02033,0.0320268,0.00112978,0.184769,0.310306,0.0099443,2,2.00001,3.48686
2,1,Potentiostatic EIS,128.231,3.48686,-0.000912036,0.707944,0.0322356,-2.18725,0.0322121,0.00123028,0.224575,0.308517,0.0099452,2,2.82508,3.48686
2,1,Potentiostatic EIS,147.77,3.48686,-0.0008403,0.501186,0.0324166,-2.40912,0.0323879,0.00136262,0.151166,0.306797,0.00994529,2,3.99054,3.48686
2,1,Potentiostatic EIS,175.354,3.48685,-0.000800687,0.354812,0.032623,-2.72286,0.0325862,0.00154976,0.193697,0.304852,0.00994519,2,5.63679,3.48685
2,1,Potentiostatic EIS,214.285,3.48685,-0.000814494,0.251188,0.0328684,-3.12028,0.0328197,0.0017891,0.208268,0.30272,0.00994992,2,7.96218,3.48685
2,1,Potentiostatic EIS,269.258,3.48686,-0.000494928,0.177827,0.0331324,-3.59289,0.0330673,0.0020763,0.184164,0.300211,0.00994671,2,11.2469,3.48686
2,1,Potentiostatic EIS,346.907,3.48686,-0.00033461,0.125892,0.0334483,-4.20263,0.0333584,0.00245123,0.199008,0.29746,0.00994952,2,15.8867,3.48686
2,1,Potentiostatic EIS,456.56,3.48686,4.15923e-05,0.0891246,0.0338323,-4.99029,0.0337041,0.00294297,0.194291,0.294253,0.00995526,2,22.4405,3.48686
2,1,Potentiostatic EIS,611.416,3.48685,6.27116e-05,0.0630955,0.0343109,-5.9527,0.0341259,0.00355829,0.183978,0.290039,0.00995148,2,31.698,3.48685
2,1,Potentiostatic EIS,821.441,3.48686,-0.000214145,0.05,0.0346581,-6.73807,0.0344187,0.00406646,0.199946,0.287065,0.00994914,2,40,3.48686