File: Data/P190/P190_04/EIS_08_P190_04_5/3_EIS_08_P190_04_5 20231019 151018.csv
Step number,Repeats,Step name,Elapsed Time  (s),DC Working Electrode (V),DC Current (A),Frequency (Hz),|Z| (Ohms),Phase (deg),Z' (Ohms),-Z" (Ohms),THD (%),Amplitude (A),Amplitude (V),No of Cycles,Duration of Each Frequency (s),IR Compensated DC Working Electrode (V)
3,1,Potentiostatic EIS,821.806,3.48637,-0.0075035,1000000,2.83443,87.564,0.120473,-2.83187,1.00111,0.00350246,0.0099276,1430,0.00143,3.48637
3,1,Potentiostatic EIS,824.104,3.48634,-0.00204719,954993,2.71397,87.5833,0.114441,-2.71156,0.932499,0.00363186,0.00985696,1425,0.00149216,3.48634
3,1,Potentiostatic EIS,826.401,3.48629,-0.0024202,912011,2.5971,87.4022,0.117712,-2.59443,1.0266,0.00379316,0.00985112,1425,0.00156248,3.48629
3,1,Potentiostatic EIS,828.696,3.4863,-0.00256828,870964,2.47899,87.2754,0.117841,-2.47619,0.967027,0.00397809,0.0098615,1390,0.00159593,3.4863
3,1,Potentiostatic EIS,830.991,3.48631,-0.00295873,831764.375,2.37801,87.2483,0.114163,-2.37527,0.941836,0.00418281,0.00994672,1400,0.00168317,3.48631
3,1,Potentiostatic EIS,833.286,3.48628,-0.00383538,794329,2.28168,87.1543,0.113278,-2.27886,1.21428,0.00433215,0.00988447,1445,0.00181915,3.48628
3,1,Potentiostatic EIS,835.589,3.48627,-0.00410443,758578,2.17888,87.1896,0.106835,-2.17626,0.994148,0.0045224,0.00985373,1370,0.00180601,3.48627
3,1,Potentiostatic EIS,837.892,3.48627,-0.00434482,724437,2.08184,87.2468,0.0999973,-2.07943,0.957381,0.00471651,0.00981905,1340,0.00184971,3.48627
3,1,Potentiostatic EIS,840.216,3.48625,-0.00456157,691832,1.99471,87.1158,0.100371,-1.99219,0.85969,0.00488784,0.00974981,1350,0.00195134,3.48625
3,1,Potentiostatic EIS,842.571,3.48626,-0.00478222,660695,1.90245,87.0004,0.099553,-1.89984,0.84046,0.00510997,0.0097218,1400,0.00211898,3.48626
3,1,Potentiostatic EIS,844.961,3.48624,-0.00531296,630959,1.81958,86.6583,0.106065,-1.81648,0.947418,0.00548111,0.00997332,1355,0.00214753,3.48624
3,1,Potentiostatic EIS,847.565,3.48623,-0.00568437,602560.875,1.74034,86.6054,0.103048,-1.73728,0.951259,0.00571137,0.00993975,1350,0.00224044,3.48623
3,1,Potentiostatic EIS,850.195,3.48621,-0.00545233,575441.125,1.66586,86.5705,0.0996526,-1.66288,1.05385,0.00596675,0.00993975,1385,0.00240685,3.48621
3,1,Potentiostatic EIS,852.852,3.48622,-0.00553802,549542,1.59151,86.551,0.0957467,-1.58863,0.953467,0.00626228,0.00996648,1345,0.00244749,3.48622
3,1,Potentiostatic EIS,855.525,3.48621,-0.00601084,524808.75,1.5228,86.5077,0.0927593,-1.51997,1.0668,0.00653839,0.00995672,1345,0.00256284,3.48621
3,1,Potentiostatic EIS,858.232,3.48622,-0.00576653,501188,1.4574,86.5865,0.0867758,-1.45482,0.997655,0.00682134,0.00994148,1385,0.00276343,3.48622
3,1,Potentiostatic EIS,860.923,3.48618,-0.00587593,478631,1.39519,86.3562,0.0886698,-1.39237,1.09495,0.00713178,0.0099502,1365,0.00285188,3.48618
3,1,Potentiostatic EIS,863.649,3.48619,-0.00614312,457090,1.33106,86.1136,0.0902177,-1.328,0.965567,0.0074658,0.00993751,1380,0.0030191,3.48619
3,1,Potentiostatic EIS,866.383,3.48618,-0.00647511,436517,1.27254,85.9486,0.0899063,-1.26936,0.91272,0.00781528,0.00994528,1345,0.00308121,3.48618
3,1,Potentiostatic EIS,869.128,3.48618,-0.00617382,416871,1.21997,85.814,0.0890508,-1.21671,0.910262,0.00814238,0.00993344,1355,0.00325041,3.48618
3,1,Potentiostatic EIS,871.916,3.48619,-0.0063469,398109,1.16805,85.7153,0.0872684,-1.16478,0.938981,0.00851986,0.00995164,1400,0.00351663,3.48619
3,1,Potentiostatic EIS,874.717,3.48615,-0.00712729,380191,1.1146,85.6135,0.0852497,-1.11133,1.00441,0.00891747,0.00993951,1400,0.00368236,3.48615
3,1,Potentiostatic EIS,877.556,3.48614,-0.0071035,363079,1.06607,85.3987,0.0855211,-1.06264,0.943914,0.00931597,0.00993153,1365,0.00375951,3.48614
3,1,Potentiostatic EIS,880.452,3.48612,-0.00737114,346738,1.02122,85.4598,0.0808389,-1.01801,0.974046,0.00973659,0.00994317,1375,0.00396553,3.48612
3,1,Potentiostatic EIS,883.405,3.48611,-0.0076907,331132.5,0.97483,85.3069,0.0797593,-0.971562,1.12755,0.0101997,0.00994299,1355,0.00409202,3.48611
3,1,Potentiostatic EIS,886.429,3.48611,-0.00783358,316229,0.931428,85.1515,0.0787248,-0.928095,1.02825,0.0106736,0.00994174,1370,0.0043323,3.48611
3,1,Potentiostatic EIS,889.505,3.4861,-0.00797112,301997,0.892561,85.0061,0.0776971,-0.889173,1.01148,0.0111319,0.00993594,1365,0.00451992,3.4861
3,1,Potentiostatic EIS,892.666,3.48609,-0.00810315,288405,0.855183,84.7759,0.0778653,-0.851631,1.01307,0.0116328,0.00994808,1340,0.00464625,3.48609
3,1,Potentiostatic EIS,895.984,3.4861,-0.00815411,275424,0.819812,84.7595,0.0748794,-0.816385,0.925945,0.0120637,0.0098901,1355,0.00491968,3.4861
3,1,Potentiostatic EIS,899.239,3.48608,-0.00835999,263028,0.783202,84.5162,0.0748457,-0.779618,1.10859,0.0125647,0.00984076,1355,0.00515154,3.48608
3,1,Potentiostatic EIS,902.571,3.48608,-0.00848447,251190,0.750803,84.416,0.0730565,-0.74724,0.949934,0.0130278,0.00978166,1340,0.00533461,3.48608
3,1,Potentiostatic EIS,905.966,3.48609,-0.00803343,239885,0.718052,84.3281,0.0709659,-0.714537,1.04422,0.0135308,0.009716,1365,0.00569023,3.48609
3,1,Potentiostatic EIS,909.552,3.48605,-0.00864743,229088.125,0.687672,84.3623,0.0675552,-0.684346,1.09055,0.0145181,0.00998373,1380,0.00602388,3.48605
3,1,Potentiostatic EIS,913.446,3.48604,-0.00893125,218777,0.65808,84.2926,0.0654453,-0.654818,1.15838,0.0151347,0.00995985,1345,0.0061478,3.48604
3,1,Potentiostatic EIS,917.423,3.48604,-0.00917475,208931,0.627504,84.1381,0.0640877,-0.624223,1.14832,0.0158095,0.00992056,1350,0.00646146,3.48604
3,1,Potentiostatic EIS,921.484,3.48602,-0.00890356,199528,0.600369,84.0355,0.0623861,-0.597119,1.1814,0.0165413,0.0099309,1355,0.00679104,3.48602
3,1,Potentiostatic EIS,925.649,3.48601,-0.00960497,190547,0.576368,83.8901,0.0613463,-0.573094,1.21073,0.0172609,0.00994867,1355,0.00711109,3.48601
3,1,Potentiostatic EIS,929.912,3.48602,-0.0093523,181971,0.552817,83.7425,0.0602553,-0.549523,1.16628,0.0179603,0.00992881,1360,0.0074737,3.48602
3,1,Potentiostatic EIS,934.279,3.48601,-0.00904246,173781,0.529622,83.4128,0.0607562,-0.526126,1.1472,0.0188304,0.00997309,1365,0.0078547,3.48601
3,1,Potentiostatic EIS,938.766,3.48596,-0.0105087,165960,0.506154,83.2481,0.0595089,-0.502644,1.10075,0.0196706,0.0099564,1375,0.00828513,3.48596
3,1,Potentiostatic EIS,943.361,3.48598,-0.00980507,158491,0.484722,83.1065,0.0581787,-0.481218,1.16743,0.020568,0.00996978,1360,0.00858096,3.48598
3,1,Potentiostatic EIS,948.096,3.48595,-0.0102709,151357,0.464134,83.0333,0.0562959,-0.460708,1.25553,0.0214824,0.0099707,1350,0.00891929,3.48595
3,1,Potentiostatic EIS,953.159,3.48592,-0.01092,144545,0.444363,82.9716,0.0543731,-0.441024,1.17462,0.0224271,0.00996576,1355,0.00937423,3.48592
3,1,Potentiostatic EIS,958.146,3.48594,-0.010778,138040,0.42622,82.896,0.0527109,-0.422948,1.15577,0.0233838,0.00996667,1365,0.00988847,3.48594
3,1,Potentiostatic EIS,963.274,3.48591,-0.0111241,131826.75,0.408219,82.4898,0.0533554,-0.404717,1.39217,0.0244329,0.00997396,1365,0.0103545,3.48591
3,1,Potentiostatic EIS,968.561,3.4859,-0.0111386,125894,0.391245,82.2725,0.0526074,-0.387692,1.27982,0.0255005,0.00997697,1370,0.0108822,3.4859
3,1,Potentiostatic EIS,974,3.48591,-0.0106643,120228,0.374683,82.1426,0.0512219,-0.371165,1.10225,0.0266683,0.00999218,1370,0.0113951,3.48591
3,1,Potentiostatic EIS,979.585,3.48591,-0.0109246,114816,0.358554,81.928,0.0503475,-0.355002,1.22733,0.0278262,0.00997721,1360,0.011845,3.48591
3,1,Potentiostatic EIS,985.366,3.48588,-0.0115544,109649,0.343955,81.7529,0.0493378,-0.340398,1.24139,0.0289808,0.00996812,1365,0.0124488,3.48588
3,1,Potentiostatic EIS,991.322,3.48585,-0.0119281,104714,0.328625,81.5981,0.0480173,-0.325098,1.27801,0.030202,0.00992508,1370,0.0130833,3.48585
3,1,Potentiostatic EIS,997.436,3.48587,-0.0115261,100001,0.314583,81.3662,0.047225,-0.311019,1.48045,0.031366,0.00986722,1370,0.0136999,3.48587
3,1,Potentiostatic EIS,1003.26,3.48583,-0.0116075,95500.1,0.301599,81.2677,0.0457883,-0.298103,1.33786,0.0330441,0.00996612,1370,0.0143455,3.48583
3,1,Potentiostatic EIS,1009.24,3.48582,-0.0121848,91202,0.289107,81.0846,0.0448049,-0.285614,1.45169,0.0345213,0.00998036,1370,0.0150216,3.48582
3,1,Potentiostatic EIS,1015.42,3.4858,-0.0121056,87097.2,0.276866,80.7781,0.0443703,-0.273288,1.4938,0.0361153,0.00999918,1355,0.0155573,3.4858
3,1,Potentiostatic EIS,1021.82,3.4858,-0.0117381,83177.3,0.265483,80.5644,0.043523,-0.261892,1.41532,0.0376327,0.00999089,1365,0.0164107,3.4858
3,1,Potentiostatic EIS,1028.43,3.48577,-0.0126327,79433.6,0.254483,80.1054,0.0437293,-0.250698,1.44101,0.0392791,0.00999584,1365,0.0171842,3.48577
3,1,Potentiostatic EIS,1035.26,3.48577,-0.0124639,75858.6,0.24391,80.0262,0.0422447,-0.240224,1.37992,0.0409739,0.0099939,1370,0.0180599,3.48577
3,1,Potentiostatic EIS,1042.34,3.48572,-0.0133099,72444.3,0.233771,79.7371,0.04165,-0.230031,1.54486,0.0427632,0.00999685,1370,0.0189111,3.48572
3,1,Potentiostatic EIS,1049.66,3.48573,-0.0126761,69183.9,0.22401,79.6715,0.0401632,-0.22038,1.5857,0.0444264,0.00995201,1365,0.01973,3.48573
3,1,Potentiostatic EIS,1056.23,3.48574,-0.012835,66070.1,0.214302,79.4101,0.0393839,-0.210651,1.518,0.0463016,0.00992257,1350,0.0204329,3.48574
3,1,Potentiostatic EIS,1058.77,3.48572,-0.0130375,63096.5,0.205343,79.1317,0.0387178,-0.201659,1.4933,0.0481222,0.0098814,1290,0.0204449,3.48572
3,1,Potentiostatic EIS,1061.3,3.48574,-0.012229,60256.7,0.197206,78.7916,0.0383327,-0.193445,1.54767,0.0500003,0.00986045,1230,0.0204127,3.48574
3,1,Potentiostatic EIS,1063.83,3.4857,-0.0128921,57544.7,0.189188,78.4352,0.0379278,-0.185347,1.58824,0.0519555,0.00982963,1175,0.0204189,3.4857
3,1,Potentiostatic EIS,1066.39,3.48568,-0.0129063,54954.7,0.181421,78.1789,0.0371652,-0.177573,1.64558,0.0540978,0.00981474,1125,0.0204714,3.48568
3,1,Potentiostatic EIS,1068.93,3.48568,-0.0140241,52481.4,0.173896,77.8714,0.0365365,-0.170014,1.50553,0.0561726,0.00976806,1070,0.0203882,3.48568
3,1,Potentiostatic EIS,1071.48,3.48568,-0.0138733,50119.3,0.16633,77.6364,0.0356137,-0.162472,1.57547,0.0585602,0.00974119,1025,0.0204512,3.48568
3,1,Potentiostatic EIS,1071.74,3.48568,-0.0135861,50000,0.165577,77.5491,0.0356989,-0.161683,1.49718,0.058724,0.00972343,1020,0.0204,3.48568